# %ECSV 1.0
# ---
# datatype:
# - {name: wavelength, unit: Angstrom, datatype: float64}
# - {name: response, datatype: float64}
# meta:
#   __serialized_columns__:
#     wavelength:
#       __class__: astropy.units.quantity.Quantity
#       unit: !astropy.units.Unit {unit: Angstrom}
#       value: !astropy.table.SerializedColumn {name: wavelength}
#   band_name: z
#   group_name: cfht_megacam
#   filter_number: 9801
# schema: astropy-2.0
wavelength response
   8201.400               0
   8204.100      6.8245229E-04
   8225.700      6.3354085E-04
   8249.900      6.9062441E-04
   8274.200      9.8585908E-04
   8298.400      1.2972738E-03
   8322.600      1.5782012E-03
   8346.800      2.2453179E-03
   8371.000      3.4802549E-03
   8395.300      5.9475293E-03
   8419.500      1.2340304E-02
   8443.600      3.0045168E-02
   8467.800      7.8159712E-02
   8492.000      0.1680171    
   8516.200      0.2488465    
   8540.300      0.2762615    
   8564.500      0.2743789    
   8588.600      0.2673178    
   8612.700      0.2633104    
   8636.800      0.2603211    
   8661.000      0.2555115    
   8685.000      0.2507096    
   8709.100      0.2444298    
   8733.200      0.2397739    
   8757.300      0.2350164    
   8781.300      0.2311301    
   8805.400      0.2270757    
   8829.400      0.2218885    
   8853.400      0.2163037    
   8877.400      0.2112720    
   8901.400      0.2060244    
   8925.400      0.1998612    
   8949.400      0.1872504    
   8973.300      0.1700391    
   8997.200      0.1626324    
   9021.200      0.1596599    
   9045.100      0.1690131    
   9069.000      0.1529970    
   9092.900      0.1460575    
   9116.700      0.1449092    
   9140.600      0.1347095    
   9164.400      0.1345010    
   9188.200      0.1369871    
   9212.100      0.1387383    
   9235.800      0.1333809    
   9259.600      0.1270467    
   9283.400      0.1137827    
   9307.100      9.1721483E-02
   9330.800      6.7977116E-02
   9354.500      5.8448236E-02
   9378.200      6.2969342E-02
   9401.900      8.6597838E-02
   9422.900      7.6359458E-02
   9446.500      7.0443816E-02
   9470.200      7.2796397E-02
   9493.800      6.6782609E-02
   9517.300      6.3078240E-02
   9540.900      6.7758605E-02
   9564.400      6.0380790E-02
   9587.900      5.7663474E-02
   9611.400      6.2186450E-02
   9634.900      6.0952805E-02
   9658.400      6.0458906E-02
   9681.800      6.3311890E-02
   9705.200      6.1253551E-02
   9728.600      5.7831567E-02
   9752.000      5.3917661E-02
   9775.300      5.4866910E-02
   9798.600      5.2599486E-02
   9822.000      5.1531781E-02
   9845.200      4.8482727E-02
   9868.500      4.6201374E-02
   9891.700      4.2865936E-02
   9914.900      4.0466372E-02
   9938.100      3.8790446E-02
   9961.300      3.6820125E-02
   9984.400      3.3332888E-02
   10007.50      2.5509777E-02
   10030.60      1.3765816E-02
   10053.70      5.6551020E-03
   10076.70      2.2045260E-03
   10099.70      9.3813660E-04
   10122.70      4.8192806E-04
   10145.70      3.0104860E-04
   10168.60      2.1071381E-04
   10191.50      1.7341961E-04
   10214.40      1.3952119E-04
   10237.20      1.2757337E-04
   10260.10      1.3220860E-04
   10282.80      1.0402482E-04
   10300.60               0
