# %ECSV 1.0
# ---
# datatype:
# - {name: wavelength, unit: Angstrom, datatype: float64}
# - {name: response, datatype: float64}
# meta:
#   __serialized_columns__:
#     wavelength:
#       __class__: astropy.units.quantity.Quantity
#       unit: !astropy.units.Unit {unit: Angstrom}
#       value: !astropy.table.SerializedColumn {name: wavelength}
#   band_name: ustar
#   group_name: cfht_megacam
#   filter_number: 9301
# schema: astropy-2.0
wavelength response
   3270.000       0.000000    
   3275.000      9.9908131E-05
   3280.000      2.0467694E-04
   3285.000      3.3381919E-04
   3290.000      6.0304237E-04
   3295.000      7.5985480E-04
   3300.000      1.0621989E-03
   3305.000      1.5964487E-03
   3310.000      2.1319774E-03
   3315.000      3.1917391E-03
   3320.000      4.7656572E-03
   3325.000      6.9240755E-03
   3330.000      9.9172676E-03
   3335.000      1.4135271E-02
   3340.000      1.9830087E-02
   3345.000      2.7526785E-02
   3350.000      3.7270915E-02
   3355.000      4.8617218E-02
   3360.000      6.1059758E-02
   3365.000      7.3979363E-02
   3370.000      8.6453743E-02
   3375.000      9.8945595E-02
   3380.000      0.1097645    
   3385.000      0.1183826    
   3390.000      0.1244701    
   3395.000      0.1280493    
   3400.000      0.1299559    
   3405.000      0.1309144    
   3410.000      0.1312743    
   3415.000      0.1308313    
   3420.000      0.1307628    
   3425.000      0.1310640    
   3430.000      0.1313578    
   3435.000      0.1315893    
   3440.000      0.1324376    
   3445.000      0.1362294    
   3450.000      0.1419948    
   3455.000      0.1491159    
   3460.000      0.1570024    
   3465.000      0.1638005    
   3470.000      0.1682834    
   3475.000      0.1698704    
   3480.000      0.1690050    
   3485.000      0.1660956    
   3490.000      0.1633385    
   3495.000      0.1641385    
   3500.000      0.1677225    
   3505.000      0.1724268    
   3510.000      0.1778926    
   3515.000      0.1827085    
   3520.000      0.1863850    
   3525.000      0.1888587    
   3530.000      0.1908693    
   3535.000      0.1929610    
   3540.000      0.1953146    
   3545.000      0.1981666    
   3550.000      0.2005469    
   3555.000      0.2019748    
   3560.000      0.2018929    
   3565.000      0.2007868    
   3570.000      0.1978568    
   3575.000      0.1936274    
   3580.000      0.1880214    
   3585.000      0.1820276    
   3590.000      0.1772545    
   3595.000      0.1750806    
   3600.000      0.1768767    
   3605.000      0.1827080    
   3610.000      0.1910887    
   3615.000      0.1993449    
   3620.000      0.2063475    
   3625.000      0.2114772    
   3630.000      0.2152607    
   3635.000      0.2182471    
   3640.000      0.2206845    
   3645.000      0.2222710    
   3650.000      0.2226783    
   3655.000      0.2210002    
   3660.000      0.2186703    
   3665.000      0.2165776    
   3670.000      0.2150388    
   3675.000      0.2131367    
   3680.000      0.2096293    
   3685.000      0.2032383    
   3690.000      0.1941944    
   3695.000      0.1852792    
   3700.000      0.1787677    
   3705.000      0.1775304    
   3710.000      0.1817984    
   3715.000      0.1890874    
   3720.000      0.1968025    
   3725.000      0.2012757    
   3730.000      0.2031142    
   3735.000      0.2032657    
   3740.000      0.2030627    
   3745.000      0.2038809    
   3750.000      0.2043495    
   3755.000      0.2037924    
   3760.000      0.2032108    
   3765.000      0.2047062    
   3770.000      0.2104816    
   3775.000      0.2205109    
   3780.000      0.2335491    
   3785.000      0.2456043    
   3790.000      0.2534129    
   3795.000      0.2568676    
   3800.000      0.2581288    
   3805.000      0.2602857    
   3810.000      0.2658249    
   3815.000      0.2744019    
   3820.000      0.2845736    
   3825.000      0.2937165    
   3830.000      0.3017988    
   3835.000      0.3076144    
   3840.000      0.3123195    
   3845.000      0.3158855    
   3850.000      0.3179144    
   3855.000      0.3183097    
   3860.000      0.3167256    
   3865.000      0.3143531    
   3870.000      0.3107504    
   3875.000      0.3062404    
   3880.000      0.3000677    
   3885.000      0.2930228    
   3890.000      0.2863066    
   3895.000      0.2811137    
   3900.000      0.2795525    
   3905.000      0.2811017    
   3910.000      0.2851365    
   3915.000      0.2900272    
   3920.000      0.2932844    
   3925.000      0.2944601    
   3930.000      0.2939587    
   3935.000      0.2934195    
   3940.000      0.2941394    
   3945.000      0.2969443    
   3950.000      0.3014700    
   3955.000      0.3064302    
   3960.000      0.3114208    
   3965.000      0.3155861    
   3970.000      0.3189104    
   3975.000      0.3205125    
   3980.000      0.3216842    
   3985.000      0.3219873    
   3990.000      0.3218473    
   3995.000      0.3221260    
   4000.000      0.3219584    
   4005.000      0.3218910    
   4010.000      0.3213755    
   4015.000      0.3199804    
   4020.000      0.3176813    
   4025.000      0.3149095    
   4030.000      0.3130186    
   4035.000      0.3120308    
   4040.000      0.3137431    
   4045.000      0.3167869    
   4050.000      0.3207502    
   4055.000      0.3238232    
   4060.000      0.3241728    
   4065.000      0.3221999    
   4070.000      0.3165499    
   4075.000      0.3090369    
   4080.000      0.2996444    
   4085.000      0.2892825    
   4090.000      0.2774815    
   4095.000      0.2638028    
   4100.000      0.2477292    
   4105.000      0.2294322    
   4110.000      0.2092235    
   4115.000      0.1880215    
   4120.000      0.1672334    
   4125.000      0.1473284    
   4130.000      0.1287786    
   4135.000      0.1115932    
   4140.000      9.6711300E-02
   4145.000      8.3197482E-02
   4150.000      7.1533039E-02
   4155.000      6.1254792E-02
   4160.000      5.2838165E-02
   4165.000      4.5343090E-02
   4170.000      3.8776025E-02
   4175.000      3.3614904E-02
   4180.000      2.8915247E-02
   4185.000      2.5153575E-02
   4190.000      2.1857865E-02
   4195.000      1.9032113E-02
   4200.000      1.6198784E-02
   4205.000      1.4321763E-02
   4210.000      1.2437114E-02
   4215.000      1.1023330E-02
   4220.000      9.6040163E-03
   4225.000      8.1791058E-03
   4230.000      7.2307186E-03
   4235.000      6.2790811E-03
   4240.000      5.8075893E-03
   4245.000      4.8490600E-03
   4250.000      4.3726247E-03
   4255.000      3.8946345E-03
   4260.000      3.4146877E-03
   4265.000      2.9321443E-03
   4270.000      2.9374179E-03
   4275.000      2.4529570E-03
   4280.000      2.4580725E-03
   4285.000      1.9702245E-03
   4290.000      1.9739955E-03
   4295.000      1.4836176E-03
   4300.000      1.4867429E-03
   4305.000      9.9250616E-04
   4310.000      4.9692550E-04
   4315.000      4.9767824E-04
   4320.000       0.000000    
